Absorbance:209,
177.674,-0.6
177.893,-0.39
178.111,-0.41
178.329,-0.49
178.547,-0.4
178.766,-0.23
178.984,0
179.202,1.17
179.42,0.15
179.638,0.32
179.856,-0.05
180.075,-0.09
180.293,-0.13
180.511,0.72
180.729,0.1
180.947,-0.05
181.165,-0.05
181.383,0.11
181.601,0.06
181.819,0.12
182.037,0.1
182.255,0.08
182.473,0.02
182.691,0.04
182.909,0.03
183.127,0.05
183.345,0.07
183.563,0.08
183.781,0.09
183.999,0.07
184.217,0.06
184.435,0.07
184.653,0.08
184.871,0.08
185.089,0.11
185.307,0.13
185.525,0.12
185.742,0.12
185.96,0.15
186.178,0.16
186.396,0.12
186.614,0.12
186.832,0.11
187.049,0.05
187.267,0.03
187.485,0.05
187.703,0.09
187.921,0.08
188.138,0.1
188.356,0.09
188.574,0.1
188.792,0.1
189.009,0.09
189.227,0.12
189.445,0.14
189.662,0.13
189.88,0.12
190.098,0.15
190.315,0.14
190.533,0.16
190.751,0.19
190.968,0.18
191.186,0.16
191.403,0.15
191.621,0.15
191.839,0.14
192.056,0.13
192.274,0.14
192.491,0.14
192.709,0.13
192.926,0.09
193.144,0.07
193.361,0.07
193.579,0.07
193.796,0.09
194.014,0.1
194.231,0.13
194.449,0.2
194.666,0.23
194.883,0.21
195.101,0.19
195.318,0.18
195.536,0.14
195.753,0.12
195.97,0.15
196.188,0.18
196.405,0.18
196.623,0.17
196.84,0.18
197.057,0.1
197.275,0.12
197.492,0.1
197.709,0.14
197.926,0.12
198.144,0.14
198.361,0.12
198.578,0.15
198.795,0.14
199.013,0.13
199.23,0.14
199.447,0.16
199.664,0.16
199.881,0.14
200.099,0.15
200.316,0.14
200.533,0.14
200.75,0.1
200.967,0.12
201.184,0.08
201.401,0.1
201.619,0.09
201.836,0.11
202.053,0.09
202.27,0.12
202.487,0.13
202.704,0.17
202.921,0.21
203.138,0.22
203.355,0.24
203.572,0.2
203.789,0.17
204.006,0.15
204.223,0.16
204.44,0.18
204.657,0.21
204.874,0.17
205.091,0.18
205.308,0.14
205.525,0.1
205.741,0.1
205.958,0.13
206.175,0.1
206.392,0.13
206.609,0.14
206.826,0.13
207.043,0.09
207.259,0.09
207.476,0.09
207.693,0.11
207.91,0.1
208.127,0.15
208.343,0.16
208.56,0.14
208.777,0.12
208.994,0.12
209.21,0.12
209.427,0.11
209.644,0.12
209.861,0.12
210.077,0.13
210.294,0.13
210.511,0.13
210.727,0.15
210.944,0.18
211.161,0.2
211.377,0.16
211.594,0.16
211.81,0.18
212.027,0.17
212.244,0.16
212.46,0.19
212.677,0.23
212.893,0.15
213.11,0.16
213.326,0.13
213.543,0.12
213.759,0.12
213.976,0.15
214.192,0.14
214.409,0.19
214.625,0.21
214.842,0.19
215.058,0.18
215.275,0.15
215.491,0.13
215.707,0.1
215.924,0.11
216.14,0.12
216.357,0.14
216.573,0.14
216.789,0.15
217.006,0.15
217.222,0.11
217.438,0.11
217.655,0.09
217.871,0.09
218.087,0.08
218.304,0.13
218.52,0.09
218.736,0.14
218.952,0.15
219.169,0.17
219.385,0.17
219.601,0.22
219.817,0.17
220.033,0.16
220.25,0.16
220.466,0.16
220.682,0.16
220.898,0.14
221.114,0.14
221.33,0.13
221.546,0.13
221.763,0.13
221.979,0.18
222.195,0.17
222.411,0.16
222.627,0.16
222.843,0.15
223.059,0.14
223.275,0.15
223.491,0.15
223.707,0.15
223.923,0.13
224.139,0.14
224.355,0.14
224.571,0.16
224.787,0.14
225.003,0.14
225.219,0.14
225.435,0.14
225.651,0.12
225.867,0.17
226.083,0.19
226.298,0.19
226.514,0.16
226.73,0.16
226.946,0.14
227.162,0.15
227.378,0.13
227.594,0.18
227.809,0.18
228.025,0.19
228.241,0.19
228.457,0.17
228.672,0.17
228.888,0.17
229.104,0.16
229.32,0.17
229.535,0.19
229.751,0.2
229.967,0.2
230.183,0.2
230.398,0.17
230.614,0.17
230.83,0.12
231.045,0.14
231.261,0.14
231.476,0.16
231.692,0.16
231.908,0.16
232.123,0.18
232.339,0.16
232.554,0.16
232.77,0.15
232.986,0.18
233.201,0.17
233.417,0.21
233.632,0.22
233.848,0.23
234.063,0.21
234.279,0.21
234.494,0.2
234.71,0.18
234.925,0.18
235.14,0.18
235.356,0.2
235.571,0.17
235.787,0.22
236.002,0.25
236.217,0.25
236.433,0.23
236.648,0.25
236.864,0.2
237.079,0.2
237.294,0.2
237.51,0.2
237.725,0.2
237.94,0.22
238.155,0.2
238.371,0.2
238.586,0.21
238.801,0.2
239.016,0.19
239.232,0.18
239.447,0.18
239.662,0.2
239.877,0.23
240.093,0.22
240.308,0.22
240.523,0.24
240.738,0.24
240.953,0.26
241.168,0.24
241.383,0.24
241.599,0.25
241.814,0.22
242.029,0.22
242.244,0.25
242.459,0.26
242.674,0.25
242.889,0.25
243.104,0.23
243.319,0.21
243.534,0.2
243.749,0.21
243.964,0.21
244.179,0.24
244.394,0.29
244.609,0.32
244.824,0.29
245.039,0.27
245.254,0.26
245.469,0.23
245.684,0.22
245.899,0.23
246.113,0.26
246.328,0.26
246.543,0.26
246.758,0.26
246.973,0.26
247.188,0.24
247.402,0.23
247.617,0.26
247.832,0.25
248.047,0.24
248.262,0.25
248.476,0.27
248.691,0.26
248.906,0.27
249.121,0.28
249.335,0.32
249.55,0.33
249.765,0.35
249.979,0.38
250.194,0.39
250.409,0.41
250.623,0.44
250.838,0.44
251.053,0.48
251.267,0.56
251.482,0.59
251.697,0.67
251.911,0.77
252.126,0.85
252.34,0.91
252.555,0.94
252.769,0.97
252.984,0.99
253.198,01.02
253.413,1.7
253.627,1.15
253.842,1.17
254.056,1.24
254.271,1.26
254.485,1.3
254.7,1.3
254.914,1.34
255.129,1.38
255.343,1.44
255.557,1.47
255.772,1.52
255.986,1.54
256.201,1.54
256.415,1.54
256.629,1.54
256.844,1.53
257.058,1.54
257.272,1.55
257.486,1.55
257.701,1.54
257.915,1.56
258.129,1.53
258.344,1.53
258.558,1.55
258.772,1.55
258.986,1.55
259.2,1.56
259.415,1.57
259.629,1.56
259.843,1.55
260.057,1.55
260.271,1.54
260.485,1.53
260.7,1.53
260.914,1.52
261.128,1.51
261.342,1.5
261.556,1.5
261.77,1.48
261.984,1.47
262.198,1.47
262.412,1.46
262.626,1.45
262.84,1.46
263.054,1.46
263.268,1.44
263.482,1.44
263.696,1.44
263.91,1.42
264.124,1.41
264.338,1.39
264.552,1.38
264.766,1.37
264.98,1.37
265.194,1.37
265.408,1.37
265.622,1.36
265.835,1.36
266.049,1.35
266.263,1.34
266.477,1.34
266.691,1.33
266.905,1.32
267.118,1.32
267.332,1.31
267.546,1.31
267.76,1.31
267.973,1.3
268.187,1.3
268.401,1.3
268.615,1.29
268.828,1.29
269.042,1.28
269.256,1.28
269.469,1.28
269.683,1.27
269.897,1.27
270.11,1.26
270.324,1.26
270.538,1.25
270.751,1.25
270.965,1.25
271.178,1.24
271.392,1.24
271.606,1.24
271.819,1.23
272.033,1.23
272.246,1.22
272.46,1.22
272.673,1.21
272.887,1.21
273.1,1.21
273.314,01.02
273.527,01.02
273.741,1.19
273.954,1.19
274.167,1.18
274.381,1.18
274.594,1.18
274.808,1.17
275.021,1.17
275.234,1.16
275.448,1.16
275.661,1.16
275.874,1.15
276.088,1.15
276.301,1.14
276.514,1.14
276.728,1.14
276.941,1.13
277.154,1.13
277.367,1.12
277.581,1.12
277.794,1.11
278.007,1.1
278.22,1.1
278.434,01.09
278.647,01.09
278.86,01.08
279.073,01.08
279.286,01.07
279.499,01.07
279.713,01.06
279.926,01.06
280.139,01.05
280.352,01.05
280.565,01.04
280.778,01.03
280.991,01.03
281.204,01.02
281.417,01.01
281.63,01.01
281.843,1
282.056,1
282.269,0.99
282.482,0.98
282.695,0.98
282.908,0.97
283.121,0.96
283.334,0.96
283.547,0.95
283.76,0.94
283.973,0.93
284.186,0.92
284.399,0.92
284.612,0.91
284.824,0.91
285.037,0.9
285.25,0.89
285.463,0.88
285.676,0.88
285.889,0.87
286.101,0.86
286.314,0.85
286.527,0.84
286.74,0.84
286.952,0.83
287.165,0.82
287.378,0.81
287.591,0.81
287.803,0.8
288.016,0.79
288.229,0.78
288.441,0.78
288.654,0.77
288.867,0.76
289.079,0.76
289.292,0.75
289.505,0.74
289.717,0.73
289.93,0.73
290.142,0.72
290.355,0.71
290.567,0.71
290.78,0.7
290.992,0.69
291.205,0.68
291.417,0.67
291.63,0.67
291.842,0.66
292.055,0.65
292.267,0.64
292.48,0.64
292.692,0.63
292.905,0.62
293.117,0.61
293.33,0.6
293.542,0.6
293.754,0.59
293.967,0.58
294.179,0.57
294.391,0.56
294.604,0.56
294.816,0.55
295.028,0.54
295.241,0.53
295.453,0.52
295.665,0.52
295.878,0.51
296.09,0.5
296.302,0.49
296.514,0.49
296.727,0.48
296.939,0.47
297.151,0.46
297.363,0.46
297.575,0.45
297.787,0.44
298,0.44
298.212,0.43
298.424,0.42
298.636,0.42
298.848,0.41
299.06,0.4
299.272,0.4
299.484,0.39
299.696,0.39
299.908,0.38
300.121,0.37
300.333,0.37
300.545,0.36
300.757,0.36
300.969,0.35
301.181,0.35
301.393,0.34
301.604,0.34
301.816,0.33
302.028,0.33
302.24,0.32
302.452,0.32
302.664,0.31
302.876,0.31
303.088,0.31
303.3,0.3
303.512,0.3
303.723,0.29
303.935,0.29
304.147,0.29
304.359,0.28
304.571,0.28
304.782,0.27
304.994,0.27
305.206,0.27
305.418,0.26
305.63,0.26
305.841,0.26
306.053,0.25
306.265,0.25
306.476,0.25
306.688,0.24
306.9,0.24
307.111,0.24
307.323,0.23
307.535,0.23
307.746,0.23
307.958,0.22
308.17,0.22
308.381,0.22
308.593,0.21
308.804,0.21
309.016,0.21
309.227,0.2
309.439,0.2
309.65,0.2
309.862,0.19
310.073,0.19
310.285,0.19
310.496,0.19
310.708,0.18
310.919,0.18
311.131,0.18
311.342,0.18
311.554,0.17
311.765,0.17
311.976,0.17
312.188,0.16
312.399,0.16
312.61,0.16
312.822,0.15
313.033,0.15
313.244,0.15
313.456,0.15
313.667,0.14
313.878,0.14
314.09,0.14
314.301,0.14
314.512,0.13
314.723,0.13
314.935,0.13
315.146,0.13
315.357,0.12
315.568,0.12
315.779,0.12
315.991,0.12
316.202,0.11
316.413,0.11
316.624,0.11
316.835,0.11
317.046,0.11
317.257,0.1
317.468,0.1
317.68,0.1
317.891,0.1
318.102,0.1
318.313,0.09
318.524,0.09
318.735,0.09
318.946,0.09
319.157,0.09
319.368,0.08
319.579,0.08
319.79,0.08
320.001,0.08
320.212,0.08
320.423,0.08
320.633,0.07
320.844,0.07
321.055,0.07
321.266,0.07
321.477,0.07
321.688,0.07
321.899,0.07
322.11,0.07
322.32,0.07
322.531,0.06
322.742,0.06
322.953,0.06
323.163,0.06
323.374,0.06
323.585,0.06
323.796,0.06
324.006,0.06
324.217,0.06
324.428,0.05
324.639,0.05
324.849,0.05
325.06,0.05
325.271,0.05
325.481,0.05
325.692,0.05
325.902,0.05
326.113,0.05
326.324,0.05
326.534,0.05
326.745,0.05
326.955,0.05
327.166,0.05
327.377,0.05
327.587,0.04
327.798,0.04
328.008,0.04
328.219,0.04
328.429,0.04
328.64,0.04
328.85,0.04
329.06,0.04
329.271,0.04
329.481,0.04
329.692,0.04
329.902,0.04
330.112,0.04
330.323,0.04
330.533,0.04
330.744,0.04
330.954,0.04
331.164,0.04
331.375,0.04
331.585,0.04
331.795,0.04
332.005,0.04
332.216,0.04
332.426,0.04
332.636,0.04
332.846,0.03
333.057,0.03
333.267,0.03
333.477,0.03
333.687,0.03
333.897,0.03
334.108,0.03
334.318,0.03
334.528,0.04
334.738,0.03
334.948,0.03
335.158,0.03
335.368,0.03
335.578,0.03
335.788,0.03
335.998,0.03
336.209,0.03
336.419,0.03
336.629,0.03
336.839,0.03
337.049,0.03
337.259,0.03
337.469,0.03
337.679,0.03
337.888,0.03
338.098,0.03
338.308,0.03
338.518,0.03
338.728,0.03
338.938,0.03
339.148,0.03
339.358,0.03
339.568,0.03
339.777,0.03
339.987,0.03
340.197,0.03
340.407,0.03
340.617,0.03
340.826,0.03
341.036,0.03
341.246,0.03
341.456,0.03
341.666,0.03
341.875,0.03
342.085,0.03
342.295,0.03
342.504,0.03
342.714,0.03
342.924,0.03
343.133,0.03
343.343,0.03
343.553,0.03
343.762,0.03
343.972,0.03
344.181,0.03
344.391,0.03
344.601,0.03
344.81,0.03
345.02,0.03
345.229,0.03
345.439,0.03
345.648,0.03
345.858,0.03
346.067,0.03
346.277,0.03
346.486,0.03
346.696,0.03
346.905,0.03
347.114,0.03
347.324,0.03
347.533,0.03
347.743,0.03
347.952,0.03
348.161,0.03
348.371,0.03
348.58,0.03
348.789,0.03
348.999,0.03
349.208,0.03
349.417,0.03
349.627,0.03
349.836,0.03
350.045,0.03
350.254,0.03
350.464,0.03
350.673,0.03
350.882,0.03
351.091,0.03
351.3,0.03
351.51,0.03
351.719,0.03
351.928,0.03
352.137,0.03
352.346,0.03
352.555,0.03
352.764,0.03
352.973,0.03
353.183,0.03
353.392,0.03
353.601,0.03
353.81,0.03
354.019,0.03
354.228,0.03
354.437,0.03
354.646,0.03
354.855,0.03
355.064,0.03
355.273,0.03
355.482,0.03
355.691,0.03
355.899,0.03
356.108,0.03
356.317,0.03
356.526,0.03
356.735,0.03
356.944,0.03
357.153,0.03
357.362,0.03
357.57,0.03
357.779,0.03
357.988,0.03
358.197,0.03
358.406,0.03
358.614,0.03
358.823,0.03
359.032,0.03
359.241,0.03
359.449,0.03
359.658,0.03
359.867,0.03
360.075,0.03
360.284,0.03
360.493,0.03
360.701,0.03
360.91,0.03
361.119,0.03
361.327,0.03
361.536,0.03
361.744,0.03
361.953,0.03
362.161,0.03
362.37,0.03
362.579,0.03
362.787,0.03
362.996,0.03
363.204,0.03
363.413,0.03
363.621,0.03
363.83,0.03
364.038,0.03
364.246,0.03
364.455,0.03
364.663,0.03
364.872,0.03
365.08,0.03
365.288,0.03
365.497,0.03
365.705,0.03
365.913,0.03
366.122,0.03
366.33,0.03
366.538,0.03
366.747,0.03
366.955,0.03
367.163,0.03
367.372,0.03
367.58,0.03
367.788,0.03
367.996,0.03
368.204,0.03
368.413,0.03
368.621,0.03
368.829,0.03
369.037,0.03
369.245,0.03
369.453,0.03
369.662,0.03
369.87,0.03
370.078,0.03
370.286,0.03
370.494,0.03
370.702,0.03
370.91,0.03
371.118,0.03
371.326,0.03
371.534,0.03
371.742,0.03
371.95,0.03
372.158,0.03
372.366,0.03
372.574,0.03
372.782,0.03
372.99,0.03
373.198,0.03
373.406,0.03
373.614,0.03
373.821,0.03
374.029,0.03
374.237,0.03
374.445,0.03
374.653,0.03
374.861,0.03
375.068,0.03
375.276,0.03
375.484,0.03
375.692,0.03
375.899,0.03
376.107,0.03
376.315,0.03
376.523,0.03
376.73,0.03
376.938,0.03
377.146,0.03
377.353,0.03
377.561,0.03
377.769,0.03
377.976,0.03
378.184,0.03
378.392,0.03
378.599,0.03
378.807,0.03
379.014,0.03
379.222,0.03
379.429,0.03
379.637,0.03
379.845,0.03
380.052,0.03
380.26,0.03
380.467,0.03
380.674,0.03
380.882,0.03
381.089,0.03
381.297,0.03
381.504,0.03
381.712,0.03
381.919,0.03
382.126,0.03
382.334,0.03
382.541,0.03
382.749,0.03
382.956,0.03
383.163,0.02
383.371,0.02
383.578,0.02
383.785,0.02
383.992,0.02
384.2,0.03
384.407,0.03
384.614,0.03
384.821,0.03
385.029,0.03
385.236,0.03
385.443,0.03
385.65,0.03
385.857,0.03
386.064,0.03
386.272,0.03
386.479,0.03
386.686,0.03
386.893,0.03
387.1,0.02
387.307,0.03
387.514,0.03
387.721,0.03
387.928,0.03
388.135,0.03
388.342,0.03
388.549,0.03
388.756,0.03
388.963,0.03
389.17,0.03
389.377,0.03
389.584,0.03
389.791,0.03
389.998,0.03
390.205,0.03
390.412,0.03
390.619,0.03
390.826,0.03
391.032,0.03
391.239,0.03
391.446,0.02
391.653,0.03
391.86,0.02
392.067,0.03
392.273,0.02
392.48,0.02
392.687,0.02
392.894,0.02
393.1,0.02
393.307,0.02
393.514,0.02
393.72,0.03
393.927,0.03
394.134,0.03
394.34,0.03
394.547,0.03
394.754,0.03
394.96,0.03
395.167,0.03
395.374,0.03
395.58,0.03
395.787,0.03
395.993,0.03
396.2,0.03
396.406,0.03
396.613,0.03
396.819,0.03
397.026,0.03
397.232,0.03
397.439,0.03
397.645,0.03
397.852,0.03
398.058,0.03
398.265,0.03
398.471,0.02
398.677,0.02
398.884,0.02
399.09,0.02
399.297,0.02
399.503,0.03
399.709,0.03
399.916,0.03
400.122,0.03
400.328,0.03
400.534,0.03
400.741,0.03
400.947,0.03
401.153,0.03
401.359,0.03
401.566,0.03
401.772,0.03
401.978,0.03
402.184,0.03
402.39,0.03
402.597,0.03
402.803,0.03
403.009,0.03
403.215,0.03
403.421,0.03
403.627,0.03
403.833,0.03
404.039,0.03
404.245,0.03
404.452,0.03
404.658,0.03
404.864,0.03
405.07,0.03
405.276,0.03
405.482,0.02
405.688,0.02
405.893,0.02
406.099,0.03
406.305,0.03
406.511,0.03
406.717,0.03
406.923,0.03
407.129,0.03
407.335,0.03
407.541,0.03
407.747,0.03
407.952,0.03
408.158,0.03
408.364,0.03
408.57,0.03
408.776,0.02
408.981,0.02
409.187,0.02
409.393,0.03
409.599,0.03
409.804,0.03
410.01,0.03
410.216,0.03
410.421,0.03
410.627,0.03
410.833,0.02
411.038,0.02
411.244,0.02
411.45,0.02
411.655,0.02
411.861,0.03
412.066,0.02
412.272,0.03
412.478,0.02
412.683,0.02
412.889,0.02
413.094,0.02
413.3,0.02
413.505,0.03
413.711,0.03
413.916,0.03
414.122,0.03
414.327,0.03
414.532,0.03
414.738,0.03
414.943,0.03
415.149,0.03
415.354,0.03
415.559,0.03
415.765,0.03
415.97,0.03
416.175,0.03
416.381,0.03
416.586,0.03
416.791,0.02
416.997,0.02
417.202,0.02
417.407,0.02
417.612,0.02
417.818,0.02
418.023,0.02
418.228,0.02
418.433,0.02
418.638,0.02
418.844,0.02
419.049,0.02
419.254,0.02
419.459,0.02
419.664,0.03
419.869,0.03
420.074,0.03
420.279,0.03
420.484,0.03
420.69,0.03
420.895,0.03
421.1,0.03
421.305,0.02
421.51,0.02
421.715,0.02
421.92,0.02
422.125,0.02
422.329,0.03
422.534,0.03
422.739,0.03
422.944,0.03
423.149,0.03
423.354,0.03
423.559,0.03
423.764,0.03
423.969,0.03
424.173,0.03
424.378,0.03
424.583,0.03
424.788,0.03
424.993,0.03
425.197,0.02
425.402,0.02
425.607,0.02
425.812,0.02
426.016,0.03
426.221,0.03
426.426,0.03
426.631,0.03
426.835,0.03
427.04,0.03
427.244,0.02
427.449,0.03
427.654,0.03
427.858,0.03
428.063,0.02
428.268,0.03
428.472,0.03
428.677,0.03
428.881,0.02
429.086,0.02
429.29,0.02
429.495,0.02
429.699,0.02
429.904,0.02
430.108,0.02
430.313,0.02
430.517,0.02
430.722,0.02
430.926,0.02
431.13,0.02
431.335,0.02
431.539,0.02
431.743,0.03
431.948,0.03
432.152,0.03
432.356,0.03
432.561,0.03
432.765,0.03
432.969,0.03
433.174,0.03
433.378,0.03
433.582,0.03
433.786,0.03
433.991,0.03
434.195,0.02
434.399,0.03
434.603,0.03
434.807,0.03
435.012,0.02
435.216,0.03
435.42,0.03
435.624,0.03
435.828,0.03
436.032,0.03
436.236,0.03
436.44,0.02
436.644,0.02
436.848,0.02
437.052,0.02
437.256,0.03
437.46,0.03
437.664,0.03
437.868,0.03
438.072,0.03
438.276,0.03
438.48,0.03
438.684,0.03
438.888,0.03
439.092,0.03
439.296,0.03
439.5,0.03
439.704,0.03
439.908,0.03
440.111,0.03
440.315,0.03
440.519,0.03
440.723,0.03
440.927,0.03
441.13,0.03
441.334,0.03
441.538,0.03
441.742,0.03
441.945,0.03
442.149,0.02
442.353,0.02
442.556,0.02
442.76,0.02
442.964,0.02
443.167,0.02
443.371,0.02
443.575,0.02
443.778,0.02
443.982,0.02
444.185,0.02
444.389,0.03
444.593,0.03
444.796,0.03
445,0.03
445.203,0.03
445.407,0.03
445.61,0.03
445.814,0.03
446.017,0.03
446.221,0.03
446.424,0.03
446.627,0.03
446.831,0.03
447.034,0.02
447.238,0.02
447.441,0.02
447.644,0.02
447.848,0.03
448.051,0.03
448.254,0.03
448.458,0.03
448.661,0.03
448.864,0.03
449.067,0.03
449.271,0.03
449.474,0.03
449.677,0.03
449.88,0.03
450.084,0.03
450.287,0.03
450.49,0.03
450.693,0.03
450.896,0.03
451.099,0.03
451.303,0.03
451.506,0.02
451.709,0.03
451.912,0.03
452.115,0.03
452.318,0.03
452.521,0.03
452.724,0.03
452.927,0.02
453.13,0.03
453.333,0.03
453.536,0.03
453.739,0.03
453.942,0.03
454.145,0.03
454.348,0.03
454.551,0.03
454.754,0.03
454.957,0.02
455.16,0.02
455.362,0.02
455.565,0.02
455.768,0.02
455.971,0.02
456.174,0.02
456.377,0.02
456.579,0.02
456.782,0.02
456.985,0.02
457.188,0.02
457.39,0.02
457.593,0.02
457.796,0.02
457.998,0.02
458.201,0.03
458.404,0.03
458.606,0.03
458.809,0.03
459.012,0.02
459.214,0.02
459.417,0.03
459.62,0.02
459.822,0.02
460.025,0.02
460.227,0.02
460.43,0.02
460.632,0.02
460.835,0.02
461.037,0.02
461.24,0.02
461.442,0.02
461.645,0.02
461.847,0.03
462.05,0.03
462.252,0.03
462.454,0.03
462.657,0.03
462.859,0.03
463.062,0.03
463.264,0.03
463.466,0.02
463.669,0.02
463.871,0.02
464.073,0.02
464.276,0.02
464.478,0.02
464.68,0.02
464.882,0.02
465.085,0.02
465.287,0.02
465.489,0.02
465.691,0.02
465.893,0.02
466.096,0.02
466.298,0.02
466.5,0.02
466.702,0.02
466.904,0.03
467.106,0.03
467.308,0.03
467.51,0.03
467.713,0.03
467.915,0.03
468.117,0.03
468.319,0.02
468.521,0.02
468.723,0.02
468.925,0.02
469.127,0.02
469.329,0.03
469.531,0.03
469.732,0.03
469.934,0.03
470.136,0.03
470.338,0.03
470.54,0.03
470.742,0.03
470.944,0.02
471.146,0.02
471.348,0.03
471.549,0.03
471.751,0.03
471.953,0.03
472.155,0.02
472.356,0.02
472.558,0.02
472.76,0.02
472.962,0.02
473.163,0.03
473.365,0.03
473.567,0.02
473.768,0.02
473.97,0.02
474.172,0.02
474.373,0.02
474.575,0.02
474.777,0.02
474.978,0.02
475.18,0.02
475.381,0.02
475.583,0.02
475.784,0.02
475.986,0.02
476.187,0.03
476.389,0.03
476.59,0.03
476.792,0.03
476.993,0.03
477.195,0.03
477.396,0.03
477.598,0.02
477.799,0.02
478.001,0.03
478.202,0.03
478.403,0.03
478.605,0.03
478.806,0.03
479.007,0.03
479.209,0.03
479.41,0.03
479.611,0.02
479.812,0.02
480.014,0.02
480.215,0.02
480.416,0.02
