Absorbance:209,
177.674,-0.72
177.893,-0.59
178.111,-0.56
178.329,-0.63
178.547,-0.54
178.766,-0.18
178.984,-2.12
179.202,-0.55
179.42,0
179.638,0
179.856,0.35
180.075,0.07
180.293,0.07
180.511,0
180.729,0
180.947,0.62
181.165,0.34
181.383,0.29
181.601,0.14
181.819,0.13
182.037,0.13
182.255,0.1
182.473,0.09
182.691,0.12
182.909,0.11
183.127,0.13
183.345,0.13
183.563,0.1
183.781,0.11
183.999,0.11
184.217,0.11
184.435,0.12
184.653,0.18
184.871,0.16
185.089,0.17
185.307,0.19
185.525,0.19
185.742,0.15
185.96,0.19
186.178,0.22
186.396,0.19
186.614,0.19
186.832,0.18
187.049,0.18
187.267,0.15
187.485,0.15
187.703,0.14
187.921,0.15
188.138,0.12
188.356,0.16
188.574,0.18
188.792,0.19
189.009,0.2
189.227,0.22
189.445,0.2
189.662,0.14
189.88,0.14
190.098,0.14
190.315,0.13
190.533,0.12
190.751,0.19
190.968,0.21
191.186,0.18
191.403,0.18
191.621,0.19
191.839,0.19
192.056,0.17
192.274,0.18
192.491,0.19
192.709,0.18
192.926,0.13
193.144,0.16
193.361,0.14
193.579,0.11
193.796,0.14
194.014,0.14
194.231,0.15
194.449,0.2
194.666,0.26
194.883,0.16
195.101,0.15
195.318,0.11
195.536,0.09
195.753,0.08
195.97,0.12
196.188,0.13
196.405,0.2
196.623,0.17
196.84,0.14
197.057,0.1
197.275,0.14
197.492,0.13
197.709,0.18
197.926,0.18
198.144,0.2
198.361,0.15
198.578,0.15
198.795,0.15
199.013,0.19
199.23,0.17
199.447,0.22
199.664,0.2
199.881,0.19
200.099,0.17
200.316,0.17
200.533,0.17
200.75,0.16
200.967,0.19
201.184,0.15
201.401,0.2
201.619,0.18
201.836,0.19
202.053,0.16
202.27,0.16
202.487,0.16
202.704,0.18
202.921,0.19
203.138,0.19
203.355,0.21
203.572,0.21
203.789,0.24
204.006,0.23
204.223,0.26
204.44,0.28
204.657,0.27
204.874,0.25
205.091,0.25
205.308,0.2
205.525,0.17
205.741,0.15
205.958,0.15
206.175,0.17
206.392,0.17
206.609,0.16
206.826,0.18
207.043,0.17
207.259,0.15
207.476,0.18
207.693,0.23
207.91,0.23
208.127,0.22
208.343,0.2
208.56,0.19
208.777,0.17
208.994,0.16
209.21,0.19
209.427,0.21
209.644,0.17
209.861,0.17
210.077,0.16
210.294,0.14
210.511,0.12
210.727,0.13
210.944,0.15
211.161,0.18
211.377,0.16
211.594,0.18
211.81,0.24
212.027,0.22
212.244,0.22
212.46,0.24
212.677,0.25
212.893,0.2
213.11,0.22
213.326,0.21
213.543,0.21
213.759,0.2
213.976,0.21
214.192,0.22
214.409,0.2
214.625,0.23
214.842,0.27
215.058,0.27
215.275,0.22
215.491,0.25
215.707,0.25
215.924,0.18
216.14,0.19
216.357,0.22
216.573,0.22
216.789,0.21
217.006,0.23
217.222,0.18
217.438,0.16
217.655,0.14
217.871,0.11
218.087,0.13
218.304,0.16
218.52,0.15
218.736,0.18
218.952,0.22
219.169,0.22
219.385,0.23
219.601,0.25
219.817,0.21
220.033,0.19
220.25,0.15
220.466,0.15
220.682,0.15
220.898,0.16
221.114,0.16
221.33,0.16
221.546,0.18
221.763,0.19
221.979,0.19
222.195,0.2
222.411,0.22
222.627,0.2
222.843,0.22
223.059,0.23
223.275,0.25
223.491,0.25
223.707,0.24
223.923,0.22
224.139,0.23
224.355,0.19
224.571,0.15
224.787,0.15
225.003,0.15
225.219,0.15
225.435,0.18
225.651,0.17
225.867,0.18
226.083,0.15
226.298,0.14
226.514,0.12
226.73,0.14
226.946,0.13
227.162,0.19
227.378,0.17
227.594,0.18
227.809,0.19
228.025,0.22
228.241,0.21
228.457,0.22
228.672,0.22
228.888,0.23
229.104,0.2
229.32,0.22
229.535,0.22
229.751,0.26
229.967,0.23
230.183,0.24
230.398,0.2
230.614,0.22
230.83,0.18
231.045,0.2
231.261,0.17
231.476,0.2
231.692,0.15
231.908,0.15
232.123,0.17
232.339,0.18
232.554,0.17
232.77,0.18
232.986,0.21
233.201,0.2
233.417,0.24
233.632,0.26
233.848,0.28
234.063,0.27
234.279,0.26
234.494,0.22
234.71,0.22
234.925,0.21
235.14,0.19
235.356,0.19
235.571,0.21
235.787,0.24
236.002,0.28
236.217,0.31
236.433,0.32
236.648,0.36
236.864,0.32
237.079,0.33
237.294,0.3
237.51,0.3
237.725,0.3
237.94,0.31
238.155,0.29
238.371,0.34
238.586,0.32
238.801,0.29
239.016,0.26
239.232,0.26
239.447,0.23
239.662,0.23
239.877,0.26
240.093,0.25
240.308,0.24
240.523,0.28
240.738,0.32
240.953,0.3
241.168,0.33
241.383,0.3
241.599,0.27
241.814,0.25
242.029,0.27
242.244,0.29
242.459,0.33
242.674,0.31
242.889,0.29
243.104,0.25
243.319,0.22
243.534,0.22
243.749,0.22
243.964,0.21
244.179,0.22
244.394,0.21
244.609,0.2
244.824,0.2
245.039,0.2
245.254,0.2
245.469,0.21
245.684,0.25
245.899,0.26
246.113,0.26
246.328,0.28
246.543,0.3
246.758,0.27
246.973,0.25
247.188,0.28
247.402,0.26
247.617,0.27
247.832,0.28
248.047,0.28
248.262,0.28
248.476,0.28
248.691,0.26
248.906,0.27
249.121,0.29
249.335,0.32
249.55,0.34
249.765,0.37
249.979,0.35
250.194,0.36
250.409,0.38
250.623,0.42
250.838,0.42
251.053,0.5
251.267,0.55
251.482,0.58
251.697,0.61
251.911,0.66
252.126,0.69
252.34,0.72
252.555,0.73
252.769,0.75
252.984,0.76
253.198,0.77
253.413,0.8
253.627,0.83
253.842,0.84
254.056,0.88
254.271,0.89
254.485,0.91
254.7,0.91
254.914,0.94
255.129,0.96
255.343,0.97
255.557,0.98
255.772,1
255.986,1
256.201,01.01
256.415,01.02
256.629,01.03
256.844,01.04
257.058,01.05
257.272,01.06
257.486,01.07
257.701,01.06
257.915,01.08
258.129,01.07
258.344,01.08
258.558,01.08
258.772,01.09
258.986,1.1
259.2,1.11
259.415,1.12
259.629,1.12
259.843,1.13
260.057,1.13
260.271,1.13
260.485,1.14
260.7,1.15
260.914,1.15
261.128,1.15
261.342,1.16
261.556,1.17
261.77,1.17
261.984,1.17
262.198,1.18
262.412,1.18
262.626,1.18
262.84,1.19
263.054,1.19
263.268,1.19
263.482,1.2
263.696,1.2
263.91,1.2
264.124,1.19
264.338,1.19
264.552,1.19
264.766,1.19
264.98,1.2
265.194,1.21
265.408,1.21
265.622,1.21
265.835,1.22
266.049,1.22
266.263,1.22
266.477,1.22
266.691,1.22
266.905,1.22
267.118,1.22
267.332,1.22
267.546,1.23
267.76,1.23
267.973,1.23
268.187,1.22
268.401,1.22
268.615,1.22
268.828,1.22
269.042,1.22
269.256,1.22
269.469,1.22
269.683,1.22
269.897,1.22
270.11,1.22
270.324,1.21
270.538,1.21
270.751,1.22
270.965,1.22
271.178,1.22
271.392,1.22
271.606,1.21
271.819,1.21
272.033,1.2
272.246,1.2
272.46,1.2
272.673,1.19
272.887,1.19
273.1,1.19
273.314,1.19
273.527,1.18
273.741,1.18
273.954,1.18
274.167,1.17
274.381,1.17
274.594,1.17
274.808,1.16
275.021,1.16
275.234,1.15
275.448,1.15
275.661,1.15
275.874,1.14
276.088,1.14
276.301,1.13
276.514,1.13
276.728,1.13
276.941,1.12
277.154,1.12
277.367,1.11
277.581,1.11
277.794,1.1
278.007,1.9
278.22,1.9
278.434,01.08
278.647,01.08
278.86,01.07
279.073,01.07
279.286,01.06
279.499,01.05
279.713,01.05
279.926,01.04
280.139,01.03
280.352,01.03
280.565,01.02
280.778,01.01
280.991,01.01
281.204,1
281.417,0.99
281.63,0.98
281.843,0.97
282.056,0.97
282.269,0.96
282.482,0.95
282.695,0.94
282.908,0.93
283.121,0.92
283.334,0.92
283.547,0.91
283.76,0.9
283.973,0.89
284.186,0.88
284.399,0.87
284.612,0.86
284.824,0.85
285.037,0.84
285.25,0.83
285.463,0.82
285.676,0.81
285.889,0.8
286.101,0.79
286.314,0.78
286.527,0.77
286.74,0.76
286.952,0.75
287.165,0.74
287.378,0.74
287.591,0.73
287.803,0.72
288.016,0.71
288.229,0.7
288.441,0.69
288.654,0.68
288.867,0.67
289.079,0.66
289.292,0.65
289.505,0.64
289.717,0.63
289.93,0.62
290.142,0.61
290.355,0.6
290.567,0.6
290.78,0.59
290.992,0.58
291.205,0.56
291.417,0.56
291.63,0.55
291.842,0.54
292.055,0.53
292.267,0.52
292.48,0.5
292.692,0.5
292.905,0.48
293.117,0.47
293.33,0.46
293.542,0.45
293.754,0.44
293.967,0.43
294.179,0.42
294.391,0.41
294.604,0.4
294.816,0.39
295.028,0.38
295.241,0.37
295.453,0.36
295.665,0.35
295.878,0.34
296.09,0.33
296.302,0.32
296.514,0.31
296.727,0.3
296.939,0.29
297.151,0.28
297.363,0.28
297.575,0.27
297.787,0.26
298,0.25
298.212,0.24
298.424,0.24
298.636,0.23
298.848,0.22
299.06,0.21
299.272,0.21
299.484,0.2
299.696,0.19
299.908,0.19
300.121,0.18
300.333,0.18
300.545,0.17
300.757,0.16
300.969,0.16
301.181,0.15
301.393,0.15
301.604,0.14
301.816,0.14
302.028,0.13
302.24,0.13
302.452,0.13
302.664,0.12
302.876,0.12
303.088,0.11
303.3,0.11
303.512,0.11
303.723,0.1
303.935,0.1
304.147,0.1
304.359,0.09
304.571,0.09
304.782,0.09
304.994,0.09
305.206,0.08
305.418,0.08
305.63,0.08
305.841,0.08
306.053,0.07
306.265,0.07
306.476,0.07
306.688,0.07
306.9,0.06
307.111,0.06
307.323,0.06
307.535,0.06
307.746,0.06
307.958,0.06
308.17,0.05
308.381,0.05
308.593,0.05
308.804,0.05
309.016,0.05
309.227,0.05
309.439,0.05
309.65,0.04
309.862,0.04
310.073,0.04
310.285,0.04
310.496,0.04
310.708,0.04
310.919,0.04
311.131,0.04
311.342,0.04
311.554,0.04
311.765,0.03
311.976,0.03
312.188,0.03
312.399,0.03
312.61,0.03
312.822,0.03
313.033,0.03
313.244,0.03
313.456,0.03
313.667,0.03
313.878,0.03
314.09,0.03
314.301,0.03
314.512,0.03
314.723,0.03
314.935,0.03
315.146,0.03
315.357,0.02
315.568,0.02
315.779,0.02
315.991,0.02
316.202,0.02
316.413,0.02
316.624,0.02
316.835,0.02
317.046,0.02
317.257,0.02
317.468,0.02
317.68,0.02
317.891,0.02
318.102,0.02
318.313,0.02
318.524,0.02
318.735,0.02
318.946,0.02
319.157,0.02
319.368,0.02
319.579,0.02
319.79,0.02
320.001,0.02
320.212,0.02
320.423,0.02
320.633,0.02
320.844,0.02
321.055,0.02
321.266,0.02
321.477,0.02
321.688,0.02
321.899,0.02
322.11,0.02
322.32,0.02
322.531,0.02
322.742,0.02
322.953,0.02
323.163,0.02
323.374,0.02
323.585,0.02
323.796,0.02
324.006,0.02
324.217,0.02
324.428,0.02
324.639,0.02
324.849,0.02
325.06,0.02
325.271,0.02
325.481,0.02
325.692,0.02
325.902,0.02
326.113,0.02
326.324,0.02
326.534,0.02
326.745,0.02
326.955,0.02
327.166,0.02
327.377,0.02
327.587,0.02
327.798,0.02
328.008,0.02
328.219,0.02
328.429,0.02
328.64,0.02
328.85,0.02
329.06,0.02
329.271,0.02
329.481,0.02
329.692,0.02
329.902,0.02
330.112,0.02
330.323,0.01
330.533,0.01
330.744,0.01
330.954,0.01
331.164,0.01
331.375,0.01
331.585,0.01
331.795,0.01
332.005,0.01
332.216,0.01
332.426,0.02
332.636,0.01
332.846,0.01
333.057,0.01
333.267,0.02
333.477,0.02
333.687,0.02
333.897,0.02
334.108,0.02
334.318,0.02
334.528,0.02
334.738,0.02
334.948,0.02
335.158,0.02
335.368,0.02
335.578,0.01
335.788,0.02
335.998,0.02
336.209,0.01
336.419,0.01
336.629,0.01
336.839,0.01
337.049,0.01
337.259,0.01
337.469,0.01
337.679,0.02
337.888,0.02
338.098,0.02
338.308,0.02
338.518,0.02
338.728,0.02
338.938,0.02
339.148,0.02
339.358,0.02
339.568,0.02
339.777,0.02
339.987,0.02
340.197,0.02
340.407,0.02
340.617,0.02
340.826,0.02
341.036,0.02
341.246,0.02
341.456,0.02
341.666,0.02
341.875,0.02
342.085,0.02
342.295,0.02
342.504,0.02
342.714,0.02
342.924,0.02
343.133,0.02
343.343,0.02
343.553,0.02
343.762,0.02
343.972,0.02
344.181,0.02
344.391,0.02
344.601,0.02
344.81,0.02
345.02,0.02
345.229,0.02
345.439,0.02
345.648,0.02
345.858,0.02
346.067,0.02
346.277,0.02
346.486,0.02
346.696,0.02
346.905,0.02
347.114,0.02
347.324,0.02
347.533,0.01
347.743,0.01
347.952,0.02
348.161,0.02
348.371,0.02
348.58,0.02
348.789,0.02
348.999,0.01
349.208,0.01
349.417,0.01
349.627,0.01
349.836,0.01
350.045,0.02
350.254,0.02
350.464,0.02
350.673,0.01
350.882,0.02
351.091,0.01
351.3,0.01
351.51,0.01
351.719,0.01
351.928,0.01
352.137,0.01
352.346,0.01
352.555,0.01
352.764,0.01
352.973,0.01
353.183,0.01
353.392,0.02
353.601,0.02
353.81,0.02
354.019,0.02
354.228,0.02
354.437,0.02
354.646,0.01
354.855,0.02
355.064,0.02
355.273,0.01
355.482,0.02
355.691,0.02
355.899,0.01
356.108,0.01
356.317,0.01
356.526,0.02
356.735,0.01
356.944,0.02
357.153,0.02
357.362,0.02
357.57,0.01
357.779,0.02
357.988,0.02
358.197,0.02
358.406,0.02
358.614,0.02
358.823,0.02
359.032,0.02
359.241,0.02
359.449,0.02
359.658,0.02
359.867,0.02
360.075,0.02
360.284,0.02
360.493,0.02
360.701,0.02
360.91,0.02
361.119,0.02
361.327,0.02
361.536,0.02
361.744,0.02
361.953,0.02
362.161,0.02
362.37,0.02
362.579,0.02
362.787,0.02
362.996,0.02
363.204,0.02
363.413,0.02
363.621,0.02
363.83,0.02
364.038,0.02
364.246,0.01
364.455,0.01
364.663,0.02
364.872,0.02
365.08,0.02
365.288,0.02
365.497,0.02
365.705,0.02
365.913,0.02
366.122,0.01
366.33,0.02
366.538,0.02
366.747,0.01
366.955,0.01
367.163,0.02
367.372,0.01
367.58,0.01
367.788,0.01
367.996,0.01
368.204,0.01
368.413,0.01
368.621,0.01
368.829,0.01
369.037,0.01
369.245,0.01
369.453,0.01
369.662,0.02
369.87,0.01
370.078,0.01
370.286,0.01
370.494,0.01
370.702,0.01
370.91,0.01
371.118,0.02
371.326,0.02
371.534,0.01
371.742,0.01
371.95,0.01
372.158,0.01
372.366,0.01
372.574,0.01
372.782,0.02
372.99,0.02
373.198,0.01
373.406,0.01
373.614,0.01
373.821,0.01
374.029,0.01
374.237,0.01
374.445,0.01
374.653,0.01
374.861,0.01
375.068,0.01
375.276,0.01
375.484,0.01
375.692,0.01
375.899,0.01
376.107,0.01
376.315,0.01
376.523,0.01
376.73,0.01
376.938,0.02
377.146,0.02
377.353,0.02
377.561,0.02
377.769,0.02
377.976,0.02
378.184,0.02
378.392,0.02
378.599,0.02
378.807,0.02
379.014,0.02
379.222,0.02
379.429,0.01
379.637,0.01
379.845,0.02
380.052,0.02
380.26,0.02
380.467,0.02
380.674,0.02
380.882,0.02
381.089,0.02
381.297,0.02
381.504,0.02
381.712,0.02
381.919,0.02
382.126,0.02
382.334,0.02
382.541,0.02
382.749,0.02
382.956,0.02
383.163,0.02
383.371,0.02
383.578,0.02
383.785,0.02
383.992,0.02
384.2,0.02
384.407,0.02
384.614,0.02
384.821,0.02
385.029,0.02
385.236,0.02
385.443,0.02
385.65,0.02
385.857,0.02
386.064,0.02
386.272,0.02
386.479,0.02
386.686,0.02
386.893,0.02
387.1,0.02
387.307,0.02
387.514,0.02
387.721,0.02
387.928,0.02
388.135,0.02
388.342,0.02
388.549,0.02
388.756,0.02
388.963,0.02
389.17,0.02
389.377,0.02
389.584,0.02
389.791,0.02
389.998,0.02
390.205,0.02
390.412,0.02
390.619,0.02
390.826,0.02
391.032,0.02
391.239,0.02
391.446,0.02
391.653,0.02
391.86,0.02
392.067,0.01
392.273,0.01
392.48,0.01
392.687,0.01
392.894,0.01
393.1,0.01
393.307,0.01
393.514,0.01
393.72,0.01
393.927,0.02
394.134,0.02
394.34,0.02
394.547,0.02
394.754,0.02
394.96,0.02
395.167,0.02
395.374,0.02
395.58,0.02
395.787,0.02
395.993,0.02
396.2,0.02
396.406,0.02
396.613,0.02
396.819,0.02
397.026,0.02
397.232,0.02
397.439,0.02
397.645,0.02
397.852,0.02
398.058,0.02
398.265,0.02
398.471,0.01
398.677,0.02
398.884,0.02
399.09,0.02
399.297,0.02
399.503,0.02
399.709,0.02
399.916,0.02
400.122,0.02
400.328,0.02
400.534,0.02
400.741,0.02
400.947,0.02
401.153,0.02
401.359,0.02
401.566,0.02
401.772,0.02
401.978,0.02
402.184,0.02
402.39,0.02
402.597,0.02
402.803,0.02
403.009,0.02
403.215,0.02
403.421,0.02
403.627,0.02
403.833,0.02
404.039,0.02
404.245,0.02
404.452,0.02
404.658,0.02
404.864,0.02
405.07,0.02
405.276,0.02
405.482,0.02
405.688,0.02
405.893,0.02
406.099,0.02
406.305,0.02
406.511,0.02
406.717,0.02
406.923,0.02
407.129,0.02
407.335,0.02
407.541,0.02
407.747,0.02
407.952,0.02
408.158,0.02
408.364,0.02
408.57,0.02
408.776,0.02
408.981,0.02
409.187,0.02
409.393,0.02
409.599,0.02
409.804,0.02
410.01,0.02
410.216,0.02
410.421,0.02
410.627,0.02
410.833,0.02
411.038,0.02
411.244,0.02
411.45,0.02
411.655,0.02
411.861,0.02
412.066,0.02
412.272,0.02
412.478,0.02
412.683,0.02
412.889,0.02
413.094,0.02
413.3,0.02
413.505,0.02
413.711,0.02
413.916,0.02
414.122,0.02
414.327,0.02
414.532,0.02
414.738,0.02
414.943,0.02
415.149,0.02
415.354,0.02
415.559,0.02
415.765,0.02
415.97,0.02
416.175,0.02
416.381,0.02
416.586,0.02
416.791,0.02
416.997,0.02
417.202,0.02
417.407,0.02
417.612,0.02
417.818,0.02
418.023,0.02
418.228,0.02
418.433,0.02
418.638,0.02
418.844,0.02
419.049,0.02
419.254,0.02
419.459,0.02
419.664,0.02
419.869,0.02
420.074,0.02
420.279,0.02
420.484,0.02
420.69,0.02
420.895,0.02
421.1,0.02
421.305,0.02
421.51,0.02
421.715,0.02
421.92,0.02
422.125,0.02
422.329,0.02
422.534,0.02
422.739,0.02
422.944,0.02
423.149,0.02
423.354,0.02
423.559,0.02
423.764,0.02
423.969,0.02
424.173,0.02
424.378,0.02
424.583,0.02
424.788,0.02
424.993,0.02
425.197,0.02
425.402,0.02
425.607,0.02
425.812,0.02
426.016,0.02
426.221,0.02
426.426,0.02
426.631,0.02
426.835,0.02
427.04,0.02
427.244,0.02
427.449,0.02
427.654,0.02
427.858,0.02
428.063,0.02
428.268,0.02
428.472,0.02
428.677,0.02
428.881,0.02
429.086,0.02
429.29,0.02
429.495,0.02
429.699,0.02
429.904,0.02
430.108,0.02
430.313,0.02
430.517,0.02
430.722,0.02
430.926,0.02
431.13,0.02
431.335,0.02
431.539,0.02
431.743,0.02
431.948,0.02
432.152,0.02
432.356,0.02
432.561,0.02
432.765,0.02
432.969,0.02
433.174,0.02
433.378,0.02
433.582,0.02
433.786,0.02
433.991,0.02
434.195,0.02
434.399,0.02
434.603,0.02
434.807,0.02
435.012,0.02
435.216,0.02
435.42,0.02
435.624,0.02
435.828,0.02
436.032,0.02
436.236,0.02
436.44,0.02
436.644,0.02
436.848,0.02
437.052,0.02
437.256,0.02
437.46,0.02
437.664,0.02
437.868,0.02
438.072,0.02
438.276,0.02
438.48,0.02
438.684,0.02
438.888,0.02
439.092,0.02
439.296,0.02
439.5,0.02
439.704,0.02
439.908,0.02
440.111,0.02
440.315,0.02
440.519,0.02
440.723,0.02
440.927,0.02
441.13,0.02
441.334,0.02
441.538,0.02
441.742,0.02
441.945,0.02
442.149,0.02
442.353,0.02
442.556,0.02
442.76,0.02
442.964,0.02
443.167,0.02
443.371,0.02
443.575,0.02
443.778,0.02
443.982,0.02
444.185,0.02
444.389,0.02
444.593,0.02
444.796,0.02
445,0.02
445.203,0.02
445.407,0.02
445.61,0.02
445.814,0.02
446.017,0.02
446.221,0.02
446.424,0.02
446.627,0.02
446.831,0.02
447.034,0.02
447.238,0.02
447.441,0.02
447.644,0.02
447.848,0.02
448.051,0.02
448.254,0.02
448.458,0.02
448.661,0.02
448.864,0.02
449.067,0.02
449.271,0.02
449.474,0.02
449.677,0.02
449.88,0.02
450.084,0.02
450.287,0.02
450.49,0.02
450.693,0.02
450.896,0.02
451.099,0.02
451.303,0.02
451.506,0.02
451.709,0.02
451.912,0.02
452.115,0.02
452.318,0.02
452.521,0.02
452.724,0.02
452.927,0.02
453.13,0.02
453.333,0.02
453.536,0.02
453.739,0.02
453.942,0.02
454.145,0.02
454.348,0.02
454.551,0.02
454.754,0.02
454.957,0.02
455.16,0.02
455.362,0.02
455.565,0.02
455.768,0.02
455.971,0.02
456.174,0.02
456.377,0.02
456.579,0.02
456.782,0.02
456.985,0.02
457.188,0.02
457.39,0.02
457.593,0.02
457.796,0.02
457.998,0.02
458.201,0.02
458.404,0.02
458.606,0.02
458.809,0.02
459.012,0.02
459.214,0.02
459.417,0.02
459.62,0.02
459.822,0.02
460.025,0.02
460.227,0.02
460.43,0.02
460.632,0.02
460.835,0.02
461.037,0.02
461.24,0.02
461.442,0.02
461.645,0.02
461.847,0.02
462.05,0.02
462.252,0.02
462.454,0.03
462.657,0.03
462.859,0.03
463.062,0.03
463.264,0.02
463.466,0.02
463.669,0.02
463.871,0.02
464.073,0.02
464.276,0.02
464.478,0.02
464.68,0.02
464.882,0.02
465.085,0.02
465.287,0.02
465.489,0.02
465.691,0.02
465.893,0.02
466.096,0.02
466.298,0.02
466.5,0.02
466.702,0.02
466.904,0.02
467.106,0.02
467.308,0.02
467.51,0.02
467.713,0.02
467.915,0.02
468.117,0.02
468.319,0.02
468.521,0.02
468.723,0.02
468.925,0.02
469.127,0.02
469.329,0.02
469.531,0.02
469.732,0.02
469.934,0.02
470.136,0.02
470.338,0.02
470.54,0.02
470.742,0.02
470.944,0.02
471.146,0.02
471.348,0.02
471.549,0.02
471.751,0.02
471.953,0.02
472.155,0.02
472.356,0.02
472.558,0.02
472.76,0.02
472.962,0.02
473.163,0.02
473.365,0.02
473.567,0.02
473.768,0.02
473.97,0.02
474.172,0.02
474.373,0.02
474.575,0.02
474.777,0.02
474.978,0.02
475.18,0.02
475.381,0.02
475.583,0.02
475.784,0.02
475.986,0.02
476.187,0.02
476.389,0.02
476.59,0.02
476.792,0.02
476.993,0.02
477.195,0.02
477.396,0.02
477.598,0.02
477.799,0.03
478.001,0.03
478.202,0.03
478.403,0.03
478.605,0.03
478.806,0.03
479.007,0.03
479.209,0.03
479.41,0.03
479.611,0.03
479.812,0.03
480.014,0.03
480.215,0.02
480.416,0.02
