Absorbance:209,
177.674,-0.77
177.893,-0.51
178.111,-0.52
178.329,-0.5
178.547,-0.39
178.766,-0.13
178.984,0
179.202,0.63
179.42,0.53
179.638,0
179.856,0
180.075,0.36
180.293,0
180.511,0
180.729,0
180.947,0.4
181.165,0.09
181.383,0.16
181.601,0.1
181.819,0.14
182.037,0.17
182.255,0.17
182.473,0.11
182.691,0.1
182.909,0.07
183.127,0.06
183.345,0.04
183.563,0.1
183.781,0.15
183.999,0.15
184.217,0.14
184.435,0.17
184.653,0.16
184.871,0.14
185.089,0.12
185.307,0.15
185.525,0.17
185.742,0.15
185.96,0.14
186.178,0.15
186.396,0.14
186.614,0.1
186.832,0.13
187.049,0.14
187.267,0.15
187.485,0.18
187.703,0.2
187.921,0.17
188.138,0.18
188.356,0.19
188.574,0.19
188.792,0.2
189.009,0.21
189.227,0.2
189.445,0.19
189.662,0.16
189.88,0.13
190.098,0.13
190.315,0.12
190.533,0.14
190.751,0.17
190.968,0.17
191.186,0.12
191.403,0.16
191.621,0.12
191.839,0.12
192.056,0.12
192.274,0.18
192.491,0.15
192.709,0.18
192.926,0.14
193.144,0.15
193.361,0.14
193.579,0.13
193.796,0.16
194.014,0.12
194.231,0.13
194.449,0.13
194.666,0.19
194.883,0.13
195.101,0.16
195.318,0.13
195.536,0.12
195.753,0.09
195.97,0.15
196.188,0.16
196.405,0.18
196.623,0.15
196.84,0.17
197.057,0.07
197.275,0.09
197.492,0.1
197.709,0.18
197.926,0.13
198.144,0.12
198.361,0.12
198.578,0.12
198.795,0.09
199.013,0.1
199.23,0.14
199.447,0.16
199.664,0.15
199.881,0.13
200.099,0.13
200.316,0.11
200.533,0.11
200.75,0.1
200.967,0.09
201.184,0.06
201.401,0.09
201.619,0.08
201.836,0.13
202.053,0.12
202.27,0.21
202.487,0.25
202.704,0.28
202.921,0.29
203.138,0.33
203.355,0.28
203.572,0.24
203.789,0.26
204.006,0.21
204.223,0.23
204.44,0.28
204.657,0.25
204.874,0.24
205.091,0.25
205.308,0.21
205.525,0.2
205.741,0.2
205.958,0.2
206.175,0.22
206.392,0.22
206.609,0.2
206.826,0.2
207.043,0.16
207.259,0.15
207.476,0.17
207.693,0.19
207.91,0.2
208.127,0.23
208.343,0.22
208.56,0.21
208.777,0.2
208.994,0.19
209.21,0.21
209.427,0.2
209.644,0.18
209.861,0.17
210.077,0.14
210.294,0.15
210.511,0.16
210.727,0.18
210.944,0.18
211.161,0.21
211.377,0.17
211.594,0.17
211.81,0.19
212.027,0.21
212.244,0.22
212.46,0.24
212.677,0.22
212.893,0.19
213.11,0.21
213.326,0.21
213.543,0.22
213.759,0.22
213.976,0.24
214.192,0.23
214.409,0.25
214.625,0.25
214.842,0.26
215.058,0.24
215.275,0.21
215.491,0.19
215.707,0.17
215.924,0.14
216.14,0.16
216.357,0.15
216.573,0.16
216.789,0.16
217.006,0.18
217.222,0.15
217.438,0.16
217.655,0.14
217.871,0.13
218.087,0.16
218.304,0.2
218.52,0.17
218.736,0.2
218.952,0.2
219.169,0.18
219.385,0.19
219.601,0.21
219.817,0.2
220.033,0.22
220.25,0.19
220.466,0.18
220.682,0.19
220.898,0.17
221.114,0.15
221.33,0.15
221.546,0.16
221.763,0.14
221.979,0.16
222.195,0.17
222.411,0.19
222.627,0.17
222.843,0.23
223.059,0.25
223.275,0.26
223.491,0.28
223.707,0.28
223.923,0.23
224.139,0.23
224.355,0.22
224.571,0.21
224.787,0.19
225.003,0.19
225.219,0.16
225.435,0.15
225.651,0.13
225.867,0.21
226.083,0.21
226.298,0.2
226.514,0.2
226.73,0.22
226.946,0.17
227.162,0.18
227.378,0.21
227.594,0.25
227.809,0.23
228.025,0.24
228.241,0.24
228.457,0.23
228.672,0.21
228.888,0.22
229.104,0.22
229.32,0.23
229.535,0.26
229.751,0.25
229.967,0.27
230.183,0.26
230.398,0.23
230.614,0.21
230.83,0.17
231.045,0.18
231.261,0.17
231.476,0.18
231.692,0.14
231.908,0.15
232.123,0.17
232.339,0.18
232.554,0.17
232.77,0.2
232.986,0.22
233.201,0.18
233.417,0.19
233.632,0.22
233.848,0.21
234.063,0.23
234.279,0.25
234.494,0.23
234.71,0.23
234.925,0.24
235.14,0.23
235.356,0.21
235.571,0.22
235.787,0.23
236.002,0.27
236.217,0.26
236.433,0.28
236.648,0.27
236.864,0.26
237.079,0.25
237.294,0.24
237.51,0.25
237.725,0.24
237.94,0.26
238.155,0.23
238.371,0.25
238.586,0.23
238.801,0.25
239.016,0.24
239.232,0.24
239.447,0.26
239.662,0.26
239.877,0.26
240.093,0.25
240.308,0.27
240.523,0.25
240.738,0.28
240.953,0.31
241.168,0.32
241.383,0.31
241.599,0.35
241.814,0.31
242.029,0.32
242.244,0.33
242.459,0.32
242.674,0.27
242.889,0.27
243.104,0.24
243.319,0.22
243.534,0.24
243.749,0.25
243.964,0.24
244.179,0.26
244.394,0.27
244.609,0.3
244.824,0.28
245.039,0.27
245.254,0.28
245.469,0.26
245.684,0.25
245.899,0.27
246.113,0.27
246.328,0.27
246.543,0.28
246.758,0.28
246.973,0.28
247.188,0.3
247.402,0.26
247.617,0.29
247.832,0.29
248.047,0.29
248.262,0.28
248.476,0.31
248.691,0.3
248.906,0.31
249.121,0.33
249.335,0.35
249.55,0.37
249.765,0.35
249.979,0.35
250.194,0.36
250.409,0.4
250.623,0.45
250.838,0.5
251.053,0.55
251.267,0.59
251.482,0.61
251.697,0.67
251.911,0.76
252.126,0.85
252.34,0.92
252.555,01.01
252.769,01.04
252.984,01.04
253.198,01.09
253.413,1.12
253.627,1.19
253.842,1.21
254.056,1.28
254.271,1.3
254.485,1.35
254.7,1.4
254.914,1.49
255.129,1.56
255.343,1.58
255.557,1.6
255.772,1.64
255.986,1.63
256.201,1.65
256.415,1.69
256.629,1.74
256.844,1.71
257.058,1.74
257.272,1.75
257.486,1.79
257.701,1.8
257.915,1.84
258.129,1.83
258.344,1.84
258.558,1.84
258.772,1.85
258.986,1.86
259.2,1.87
259.415,1.87
259.629,1.88
259.843,1.87
260.057,1.88
260.271,1.88
260.485,1.88
260.7,1.91
260.914,1.91
261.128,1.9
261.342,1.9
261.556,1.9
261.77,1.86
261.984,1.85
262.198,1.85
262.412,1.83
262.626,1.83
262.84,1.81
263.054,1.8
263.268,1.76
263.482,1.73
263.696,1.7
263.91,1.68
264.124,1.63
264.338,1.62
264.552,1.6
264.766,1.58
264.98,1.56
265.194,1.56
265.408,1.54
265.622,1.51
265.835,1.49
266.049,1.47
266.263,1.44
266.477,1.42
266.691,1.41
266.905,1.38
267.118,1.36
267.332,1.35
267.546,1.33
267.76,1.31
267.973,1.3
268.187,1.29
268.401,1.27
268.615,1.26
268.828,1.25
269.042,1.23
269.256,1.22
269.469,1.21
269.683,1.19
269.897,1.18
270.11,1.17
270.324,1.16
270.538,1.15
270.751,1.14
270.965,1.14
271.178,1.13
271.392,1.12
271.606,1.11
271.819,1.1
272.033,01.09
272.246,01.09
272.46,01.08
272.673,01.07
272.887,01.06
273.1,01.05
273.314,01.05
273.527,01.04
273.741,01.04
273.954,01.03
274.167,01.03
274.381,01.02
274.594,01.02
274.808,01.02
275.021,01.01
275.234,01.01
275.448,01.01
275.661,1
275.874,1
276.088,1
276.301,0.99
276.514,0.99
276.728,0.99
276.941,0.99
277.154,0.98
277.367,0.98
277.581,0.98
277.794,0.97
278.007,0.97
278.22,0.97
278.434,0.96
278.647,0.96
278.86,0.96
279.073,0.96
279.286,0.96
279.499,0.96
279.713,0.96
279.926,0.95
280.139,0.95
280.352,0.95
280.565,0.95
280.778,0.94
280.991,0.94
281.204,0.94
281.417,0.94
281.63,0.94
281.843,0.94
282.056,0.94
282.269,0.93
282.482,0.93
282.695,0.93
282.908,0.93
283.121,0.93
283.334,0.93
283.547,0.93
283.76,0.92
283.973,0.92
284.186,0.92
284.399,0.92
284.612,0.92
284.824,0.92
285.037,0.92
285.25,0.92
285.463,0.91
285.676,0.91
285.889,0.91
286.101,0.91
286.314,0.91
286.527,0.91
286.74,0.91
286.952,0.91
287.165,0.91
287.378,0.9
287.591,0.9
287.803,0.9
288.016,0.9
288.229,0.9
288.441,0.9
288.654,0.89
288.867,0.89
289.079,0.89
289.292,0.89
289.505,0.89
289.717,0.88
289.93,0.88
290.142,0.88
290.355,0.88
290.567,0.88
290.78,0.88
290.992,0.87
291.205,0.87
291.417,0.87
291.63,0.87
291.842,0.87
292.055,0.87
292.267,0.87
292.48,0.86
292.692,0.86
292.905,0.86
293.117,0.85
293.33,0.85
293.542,0.85
293.754,0.85
293.967,0.84
294.179,0.84
294.391,0.84
294.604,0.84
294.816,0.84
295.028,0.83
295.241,0.83
295.453,0.83
295.665,0.83
295.878,0.82
296.09,0.82
296.302,0.82
296.514,0.82
296.727,0.81
296.939,0.81
297.151,0.81
297.363,0.8
297.575,0.8
297.787,0.8
298,0.79
298.212,0.79
298.424,0.79
298.636,0.78
298.848,0.78
299.06,0.77
299.272,0.77
299.484,0.77
299.696,0.76
299.908,0.76
300.121,0.76
300.333,0.75
300.545,0.75
300.757,0.74
300.969,0.74
301.181,0.73
301.393,0.73
301.604,0.72
301.816,0.72
302.028,0.72
302.24,0.71
302.452,0.71
302.664,0.7
302.876,0.7
303.088,0.69
303.3,0.69
303.512,0.68
303.723,0.68
303.935,0.67
304.147,0.67
304.359,0.66
304.571,0.66
304.782,0.65
304.994,0.65
305.206,0.64
305.418,0.64
305.63,0.63
305.841,0.63
306.053,0.62
306.265,0.61
306.476,0.61
306.688,0.6
306.9,0.6
307.111,0.59
307.323,0.58
307.535,0.58
307.746,0.57
307.958,0.57
308.17,0.56
308.381,0.55
308.593,0.55
308.804,0.54
309.016,0.53
309.227,0.53
309.439,0.52
309.65,0.52
309.862,0.51
310.073,0.5
310.285,0.49
310.496,0.49
310.708,0.48
310.919,0.48
311.131,0.47
311.342,0.46
311.554,0.45
311.765,0.45
311.976,0.44
312.188,0.43
312.399,0.42
312.61,0.42
312.822,0.41
313.033,0.4
313.244,0.39
313.456,0.39
313.667,0.38
313.878,0.37
314.09,0.37
314.301,0.36
314.512,0.35
314.723,0.34
314.935,0.34
315.146,0.33
315.357,0.32
315.568,0.31
315.779,0.31
315.991,0.3
316.202,0.29
316.413,0.29
316.624,0.28
316.835,0.27
317.046,0.27
317.257,0.26
317.468,0.25
317.68,0.25
317.891,0.24
318.102,0.24
318.313,0.23
318.524,0.22
318.735,0.22
318.946,0.21
319.157,0.21
319.368,0.2
319.579,0.2
319.79,0.19
320.001,0.19
320.212,0.18
320.423,0.18
320.633,0.17
320.844,0.17
321.055,0.16
321.266,0.16
321.477,0.16
321.688,0.15
321.899,0.15
322.11,0.14
322.32,0.14
322.531,0.14
322.742,0.13
322.953,0.13
323.163,0.13
323.374,0.12
323.585,0.12
323.796,0.12
324.006,0.11
324.217,0.11
324.428,0.11
324.639,0.11
324.849,0.1
325.06,0.1
325.271,0.1
325.481,0.1
325.692,0.09
325.902,0.09
326.113,0.09
326.324,0.09
326.534,0.09
326.745,0.09
326.955,0.08
327.166,0.08
327.377,0.08
327.587,0.08
327.798,0.08
328.008,0.08
328.219,0.08
328.429,0.08
328.64,0.08
328.85,0.08
329.06,0.07
329.271,0.07
329.481,0.07
329.692,0.07
329.902,0.07
330.112,0.06
330.323,0.06
330.533,0.06
330.744,0.06
330.954,0.06
331.164,0.06
331.375,0.06
331.585,0.06
331.795,0.06
332.005,0.05
332.216,0.05
332.426,0.05
332.636,0.05
332.846,0.05
333.057,0.05
333.267,0.05
333.477,0.05
333.687,0.05
333.897,0.05
334.108,0.05
334.318,0.05
334.528,0.05
334.738,0.05
334.948,0.05
335.158,0.04
335.368,0.04
335.578,0.04
335.788,0.04
335.998,0.04
336.209,0.04
336.419,0.04
336.629,0.04
336.839,0.04
337.049,0.04
337.259,0.04
337.469,0.04
337.679,0.04
337.888,0.04
338.098,0.04
338.308,0.04
338.518,0.04
338.728,0.04
338.938,0.04
339.148,0.04
339.358,0.04
339.568,0.04
339.777,0.04
339.987,0.04
340.197,0.04
340.407,0.04
340.617,0.04
340.826,0.04
341.036,0.04
341.246,0.04
341.456,0.04
341.666,0.04
341.875,0.04
342.085,0.04
342.295,0.04
342.504,0.03
342.714,0.03
342.924,0.03
343.133,0.03
343.343,0.03
343.553,0.03
343.762,0.03
343.972,0.03
344.181,0.03
344.391,0.03
344.601,0.03
344.81,0.03
345.02,0.03
345.229,0.03
345.439,0.03
345.648,0.03
345.858,0.03
346.067,0.03
346.277,0.03
346.486,0.03
346.696,0.03
346.905,0.03
347.114,0.03
347.324,0.03
347.533,0.03
347.743,0.03
347.952,0.03
348.161,0.03
348.371,0.03
348.58,0.03
348.789,0.03
348.999,0.03
349.208,0.03
349.417,0.03
349.627,0.03
349.836,0.03
350.045,0.03
350.254,0.03
350.464,0.03
350.673,0.03
350.882,0.03
351.091,0.03
351.3,0.03
351.51,0.03
351.719,0.03
351.928,0.03
352.137,0.03
352.346,0.03
352.555,0.03
352.764,0.03
352.973,0.03
353.183,0.03
353.392,0.03
353.601,0.03
353.81,0.03
354.019,0.03
354.228,0.03
354.437,0.03
354.646,0.03
354.855,0.03
355.064,0.03
355.273,0.03
355.482,0.03
355.691,0.03
355.899,0.03
356.108,0.03
356.317,0.03
356.526,0.03
356.735,0.03
356.944,0.03
357.153,0.03
357.362,0.03
357.57,0.03
357.779,0.03
357.988,0.03
358.197,0.03
358.406,0.03
358.614,0.03
358.823,0.03
359.032,0.03
359.241,0.03
359.449,0.03
359.658,0.03
359.867,0.03
360.075,0.03
360.284,0.03
360.493,0.03
360.701,0.03
360.91,0.03
361.119,0.03
361.327,0.03
361.536,0.03
361.744,0.03
361.953,0.03
362.161,0.03
362.37,0.03
362.579,0.03
362.787,0.03
362.996,0.03
363.204,0.03
363.413,0.03
363.621,0.03
363.83,0.03
364.038,0.03
364.246,0.03
364.455,0.03
364.663,0.03
364.872,0.03
365.08,0.03
365.288,0.03
365.497,0.03
365.705,0.03
365.913,0.03
366.122,0.03
366.33,0.03
366.538,0.03
366.747,0.03
366.955,0.03
367.163,0.03
367.372,0.03
367.58,0.03
367.788,0.03
367.996,0.03
368.204,0.03
368.413,0.03
368.621,0.03
368.829,0.03
369.037,0.03
369.245,0.03
369.453,0.03
369.662,0.03
369.87,0.03
370.078,0.03
370.286,0.03
370.494,0.03
370.702,0.03
370.91,0.03
371.118,0.03
371.326,0.03
371.534,0.03
371.742,0.03
371.95,0.03
372.158,0.03
372.366,0.03
372.574,0.03
372.782,0.03
372.99,0.03
373.198,0.03
373.406,0.03
373.614,0.03
373.821,0.03
374.029,0.03
374.237,0.03
374.445,0.03
374.653,0.03
374.861,0.03
375.068,0.03
375.276,0.03
375.484,0.03
375.692,0.03
375.899,0.03
376.107,0.03
376.315,0.03
376.523,0.03
376.73,0.03
376.938,0.03
377.146,0.03
377.353,0.03
377.561,0.03
377.769,0.03
377.976,0.03
378.184,0.03
378.392,0.03
378.599,0.03
378.807,0.03
379.014,0.03
379.222,0.03
379.429,0.03
379.637,0.03
379.845,0.03
380.052,0.03
380.26,0.03
380.467,0.03
380.674,0.03
380.882,0.03
381.089,0.03
381.297,0.03
381.504,0.03
381.712,0.03
381.919,0.03
382.126,0.03
382.334,0.03
382.541,0.03
382.749,0.03
382.956,0.03
383.163,0.03
383.371,0.03
383.578,0.03
383.785,0.03
383.992,0.03
384.2,0.03
384.407,0.03
384.614,0.03
384.821,0.03
385.029,0.03
385.236,0.03
385.443,0.03
385.65,0.03
385.857,0.03
386.064,0.03
386.272,0.03
386.479,0.03
386.686,0.03
386.893,0.03
387.1,0.03
387.307,0.03
387.514,0.03
387.721,0.03
387.928,0.03
388.135,0.03
388.342,0.03
388.549,0.03
388.756,0.03
388.963,0.03
389.17,0.03
389.377,0.03
389.584,0.03
389.791,0.03
389.998,0.03
390.205,0.03
390.412,0.03
390.619,0.03
390.826,0.03
391.032,0.03
391.239,0.03
391.446,0.03
391.653,0.03
391.86,0.03
392.067,0.03
392.273,0.03
392.48,0.03
392.687,0.03
392.894,0.03
393.1,0.03
393.307,0.03
393.514,0.03
393.72,0.03
393.927,0.03
394.134,0.03
394.34,0.03
394.547,0.03
394.754,0.03
394.96,0.03
395.167,0.03
395.374,0.03
395.58,0.03
395.787,0.03
395.993,0.03
396.2,0.03
396.406,0.03
396.613,0.03
396.819,0.03
397.026,0.03
397.232,0.03
397.439,0.03
397.645,0.03
397.852,0.03
398.058,0.03
398.265,0.03
398.471,0.03
398.677,0.03
398.884,0.03
399.09,0.03
399.297,0.03
399.503,0.03
399.709,0.03
399.916,0.03
400.122,0.03
400.328,0.03
400.534,0.03
400.741,0.03
400.947,0.03
401.153,0.03
401.359,0.03
401.566,0.03
401.772,0.03
401.978,0.03
402.184,0.03
402.39,0.03
402.597,0.03
402.803,0.03
403.009,0.03
403.215,0.03
403.421,0.03
403.627,0.03
403.833,0.03
404.039,0.03
404.245,0.03
404.452,0.03
404.658,0.03
404.864,0.03
405.07,0.03
405.276,0.03
405.482,0.03
405.688,0.03
405.893,0.03
406.099,0.03
406.305,0.03
406.511,0.03
406.717,0.03
406.923,0.03
407.129,0.03
407.335,0.03
407.541,0.03
407.747,0.03
407.952,0.03
408.158,0.03
408.364,0.03
408.57,0.03
408.776,0.03
408.981,0.03
409.187,0.03
409.393,0.03
409.599,0.03
409.804,0.03
410.01,0.03
410.216,0.03
410.421,0.03
410.627,0.03
410.833,0.03
411.038,0.03
411.244,0.03
411.45,0.03
411.655,0.03
411.861,0.03
412.066,0.03
412.272,0.03
412.478,0.03
412.683,0.03
412.889,0.03
413.094,0.03
413.3,0.03
413.505,0.03
413.711,0.03
413.916,0.03
414.122,0.03
414.327,0.03
414.532,0.03
414.738,0.03
414.943,0.03
415.149,0.03
415.354,0.03
415.559,0.03
415.765,0.03
415.97,0.03
416.175,0.03
416.381,0.03
416.586,0.03
416.791,0.03
416.997,0.03
417.202,0.03
417.407,0.03
417.612,0.03
417.818,0.03
418.023,0.03
418.228,0.03
418.433,0.03
418.638,0.03
418.844,0.03
419.049,0.03
419.254,0.03
419.459,0.03
419.664,0.03
419.869,0.03
420.074,0.03
420.279,0.03
420.484,0.03
420.69,0.03
420.895,0.03
421.1,0.03
421.305,0.03
421.51,0.03
421.715,0.03
421.92,0.03
422.125,0.03
422.329,0.03
422.534,0.03
422.739,0.03
422.944,0.03
423.149,0.03
423.354,0.03
423.559,0.03
423.764,0.03
423.969,0.03
424.173,0.03
424.378,0.03
424.583,0.03
424.788,0.03
424.993,0.03
425.197,0.03
425.402,0.03
425.607,0.03
425.812,0.03
426.016,0.03
426.221,0.03
426.426,0.03
426.631,0.03
426.835,0.03
427.04,0.03
427.244,0.03
427.449,0.03
427.654,0.03
427.858,0.03
428.063,0.03
428.268,0.03
428.472,0.03
428.677,0.03
428.881,0.03
429.086,0.03
429.29,0.03
429.495,0.03
429.699,0.03
429.904,0.03
430.108,0.03
430.313,0.03
430.517,0.03
430.722,0.03
430.926,0.03
431.13,0.03
431.335,0.03
431.539,0.03
431.743,0.03
431.948,0.03
432.152,0.03
432.356,0.03
432.561,0.03
432.765,0.03
432.969,0.03
433.174,0.03
433.378,0.03
433.582,0.03
433.786,0.03
433.991,0.03
434.195,0.03
434.399,0.03
434.603,0.03
434.807,0.03
435.012,0.03
435.216,0.03
435.42,0.03
435.624,0.03
435.828,0.03
436.032,0.03
436.236,0.03
436.44,0.03
436.644,0.03
436.848,0.03
437.052,0.03
437.256,0.03
437.46,0.03
437.664,0.03
437.868,0.03
438.072,0.03
438.276,0.03
438.48,0.03
438.684,0.03
438.888,0.03
439.092,0.03
439.296,0.03
439.5,0.03
439.704,0.03
439.908,0.03
440.111,0.03
440.315,0.03
440.519,0.03
440.723,0.03
440.927,0.03
441.13,0.03
441.334,0.03
441.538,0.03
441.742,0.03
441.945,0.03
442.149,0.03
442.353,0.03
442.556,0.03
442.76,0.03
442.964,0.03
443.167,0.03
443.371,0.03
443.575,0.03
443.778,0.03
443.982,0.03
444.185,0.03
444.389,0.03
444.593,0.03
444.796,0.03
445,0.03
445.203,0.03
445.407,0.03
445.61,0.03
445.814,0.03
446.017,0.03
446.221,0.03
446.424,0.03
446.627,0.03
446.831,0.03
447.034,0.03
447.238,0.03
447.441,0.03
447.644,0.03
447.848,0.03
448.051,0.03
448.254,0.03
448.458,0.03
448.661,0.03
448.864,0.03
449.067,0.03
449.271,0.03
449.474,0.03
449.677,0.03
449.88,0.03
450.084,0.03
450.287,0.03
450.49,0.03
450.693,0.03
450.896,0.03
451.099,0.03
451.303,0.03
451.506,0.03
451.709,0.03
451.912,0.03
452.115,0.03
452.318,0.03
452.521,0.03
452.724,0.03
452.927,0.03
453.13,0.03
453.333,0.03
453.536,0.03
453.739,0.03
453.942,0.03
454.145,0.03
454.348,0.03
454.551,0.03
454.754,0.03
454.957,0.03
455.16,0.03
455.362,0.03
455.565,0.03
455.768,0.03
455.971,0.03
456.174,0.03
456.377,0.03
456.579,0.03
456.782,0.03
456.985,0.03
457.188,0.03
457.39,0.03
457.593,0.03
457.796,0.03
457.998,0.03
458.201,0.03
458.404,0.03
458.606,0.03
458.809,0.03
459.012,0.03
459.214,0.03
459.417,0.03
459.62,0.03
459.822,0.03
460.025,0.03
460.227,0.03
460.43,0.03
460.632,0.03
460.835,0.03
461.037,0.03
461.24,0.03
461.442,0.03
461.645,0.03
461.847,0.03
462.05,0.03
462.252,0.03
462.454,0.03
462.657,0.03
462.859,0.03
463.062,0.03
463.264,0.03
463.466,0.03
463.669,0.03
463.871,0.03
464.073,0.03
464.276,0.03
464.478,0.03
464.68,0.03
464.882,0.03
465.085,0.03
465.287,0.03
465.489,0.03
465.691,0.03
465.893,0.03
466.096,0.03
466.298,0.03
466.5,0.03
466.702,0.03
466.904,0.03
467.106,0.03
467.308,0.03
467.51,0.03
467.713,0.03
467.915,0.03
468.117,0.03
468.319,0.03
468.521,0.03
468.723,0.03
468.925,0.03
469.127,0.03
469.329,0.03
469.531,0.03
469.732,0.03
469.934,0.03
470.136,0.03
470.338,0.03
470.54,0.03
470.742,0.03
470.944,0.03
471.146,0.03
471.348,0.03
471.549,0.03
471.751,0.03
471.953,0.03
472.155,0.03
472.356,0.03
472.558,0.03
472.76,0.03
472.962,0.03
473.163,0.03
473.365,0.03
473.567,0.03
473.768,0.03
473.97,0.03
474.172,0.03
474.373,0.03
474.575,0.03
474.777,0.03
474.978,0.03
475.18,0.03
475.381,0.03
475.583,0.03
475.784,0.03
475.986,0.03
476.187,0.03
476.389,0.03
476.59,0.03
476.792,0.03
476.993,0.03
477.195,0.03
477.396,0.03
477.598,0.03
477.799,0.03
478.001,0.03
478.202,0.03
478.403,0.03
478.605,0.03
478.806,0.03
479.007,0.03
479.209,0.03
479.41,0.03
479.611,0.03
479.812,0.03
480.014,0.03
480.215,0.03
480.416,0.03
480.617,0.03
